TITLE,PEGDA 1500 MgTFSI 30 03_05_18,
DATA TYPE,RAMAN SPECTRUM,
ORIGIN,JASCO,
OWNER,,
DATE,18/03/05,
TIME,9:27:25,
SPECTROMETER/DATA SYSTEM,,
LOCALE,1041,
RESOLUTION,,
DELTAX,1,
XUNITS,1/CM,
YUNITS,INTENSITY,
FIRSTX,212.4148,
LASTX,2060.4148,
NPOINTS,1849,
FIRSTY,45.04688,
MAXY,944.58575,
MINY,29.04553,
XYDATA,,
212.4148,45.0469,
213.4148,80.0449,
214.4148,100.871,
215.4148,97.9502,
216.4148,84.4211,
217.4148,77.6061,
218.4148,77.6166,
219.4148,78.609,
220.4148,78.8792,
221.4148,78.4963,
222.4148,76.2631,
223.4148,70.5871,
224.4148,63.6532,
225.4148,59.8593,
226.4148,58.8492,
227.4148,56.5842,
228.4148,51.6801,
229.4148,45.4428,
230.4148,41.5558,
231.4148,46.0836,
232.4148,57.8984,
233.4148,66.1801,
234.4148,65.1203,
235.4148,57.9442,
236.4148,49.5259,
237.4148,46.319,
238.4148,50.294,
239.4148,52.9361,
240.4148,48.3779,
241.4148,41.7491,
242.4148,38.7673,
243.4148,41.1202,
244.4148,48.3592,
245.4148,54.887,
246.4148,55.1762,
247.4148,49.8844,
248.4148,41.7438,
249.4148,34.9857,
250.4148,33.7506,
251.4148,38.0052,
252.4148,45.6652,
253.4148,52.0432,
254.4148,51.9054,
255.4148,47.3318,
256.4148,44.2547,
257.4148,44.0238,
258.4148,44.8827,
259.4148,45.363,
260.4148,44.3304,
261.4148,41.8552,
262.4148,39.1259,
263.4148,37.9638,
264.4148,40.7628,
265.4148,48.025,
266.4148,57.8441,
267.4148,65.7827,
268.4148,64.1244,
269.4148,52.8636,
270.4148,45.0458,
271.4148,47.6926,
272.4148,54.016,
273.4148,58.1221,
274.4148,59.5414,
275.4148,60.4618,
276.4148,68.0374,
277.4148,85.2429,
278.4148,100.154,
279.4148,103.915,
280.4148,108.128,
281.4148,123.804,
282.4148,141.278,
283.4148,149.028,
284.4148,151.803,
285.4148,157.301,
286.4148,162.762,
287.4148,162.37,
288.4148,153.816,
289.4148,137.089,
290.4148,118.991,
291.4148,108.231,
292.4148,102.836,
293.4148,95.6944,
294.4148,84.3582,
295.4148,69.5727,
296.4148,56.9001,
297.4148,54.3213,
298.4148,57.7759,
299.4148,54.6418,
300.4148,44.7161,
301.4148,38.3628,
302.4148,38.0496,
303.4148,38.393,
304.4148,38.96,
305.4148,44.9158,
306.4148,54.9947,
307.4148,59.8146,
308.4148,57.0701,
309.4148,54.8718,
310.4148,57.3791,
311.4148,61.4432,
312.4148,64.9314,
313.4148,68.5725,
314.4148,72.3277,
315.4148,74.1082,
316.4148,74.2442,
317.4148,78.8851,
318.4148,90.2609,
319.4148,99.0445,
320.4148,100.368,
321.4148,106.549,
322.4148,125.077,
323.4148,139.247,
324.4148,135.345,
325.4148,126.516,
326.4148,126.343,
327.4148,127.086,
328.4148,118.778,
329.4148,104.698,
330.4148,91.256,
331.4148,82.3355,
332.4148,79.4051,
333.4148,74.904,
334.4148,60.7503,
335.4148,44.8104,
336.4148,39.3058,
337.4148,44.4647,
338.4148,55.0922,
339.4148,63.304,
340.4148,61.2859,
341.4148,52.6717,
342.4148,46.3004,
343.4148,44.3516,
344.4148,45.5127,
345.4148,51.681,
346.4148,66.0497,
347.4148,82.9682,
348.4148,91.5256,
349.4148,90.9939,
350.4148,87.991,
351.4148,85.5506,
352.4148,83.5113,
353.4148,78.3245,
354.4148,64.2502,
355.4148,49.5641,
356.4148,54.7694,
357.4148,75.2783,
358.4148,81.3628,
359.4148,69.2425,
360.4148,64.3445,
361.4148,71.487,
362.4148,69.6417,
363.4148,54.8895,
364.4148,46.8707,
365.4148,51.643,
366.4148,54.5538,
367.4148,49.6753,
368.4148,46.176,
369.4148,46.9533,
370.4148,43.0863,
371.4148,35.8923,
372.4148,45.8388,
373.4148,76.3477,
374.4148,96.2397,
375.4148,87.9522,
376.4148,67.95,
377.4148,51.3765,
378.4148,42.2443,
379.4148,41.043,
380.4148,43.5069,
381.4148,46.9279,
382.4148,53.8923,
383.4148,64.5917,
384.4148,71.0876,
385.4148,68.5218,
386.4148,63.9667,
387.4148,64.3991,
388.4148,70.6357,
389.4148,79.4263,
390.4148,78.3786,
391.4148,60.7127,
392.4148,43.9286,
393.4148,43.287,
394.4148,48.8,
395.4148,49.3746,
396.4148,50.2242,
397.4148,58.0355,
398.4148,70.4831,
399.4148,82.3034,
400.4148,85.2038,
401.4148,75.0927,
402.4148,69.6399,
403.4148,84.0266,
404.4148,94.6974,
405.4148,77.2808,
406.4148,57.2384,
407.4148,65.3755,
408.4148,83.3113,
409.4148,83.405,
410.4148,71.5492,
411.4148,63.0026,
412.4148,63.3351,
413.4148,72.6234,
414.4148,78.4988,
415.4148,67.6744,
416.4148,48.5379,
417.4148,36.2752,
418.4148,37.6062,
419.4148,53.4945,
420.4148,68.7741,
421.4148,65.8371,
422.4148,54.94,
423.4148,54.5841,
424.4148,59.0205,
425.4148,54.4726,
426.4148,45.3034,
427.4148,42.9713,
428.4148,51.2832,
429.4148,68.6747,
430.4148,79.1211,
431.4148,64.2801,
432.4148,42.1449,
433.4148,43.3939,
434.4148,57.799,
435.4148,58.3945,
436.4148,48.9771,
437.4148,46.9455,
438.4148,51.559,
439.4148,53.7091,
440.4148,54.0365,
441.4148,57.7597,
442.4148,64.4992,
443.4148,70.9901,
444.4148,75.3442,
445.4148,76.2404,
446.4148,70.4495,
447.4148,55.147,
448.4148,41.7271,
449.4148,47.074,
450.4148,63.5133,
451.4148,71.3326,
452.4148,70.293,
453.4148,70.4178,
454.4148,71.6982,
455.4148,69.1826,
456.4148,67.4356,
457.4148,74.9962,
458.4148,83.9394,
459.4148,79.0568,
460.4148,69.7973,
461.4148,77.1704,
462.4148,91.1788,
463.4148,86.3643,
464.4148,67.408,
465.4148,55.3147,
466.4148,54.681,
467.4148,60.2578,
468.4148,66.3972,
469.4148,68.3252,
470.4148,71.8655,
471.4148,86.5596,
472.4148,96.565,
473.4148,75.9139,
474.4148,46.2786,
475.4148,51.5376,
476.4148,80.697,
477.4148,94.3517,
478.4148,85.712,
479.4148,66.9168,
480.4148,51.6378,
481.4148,52.2246,
482.4148,61.2893,
483.4148,62.1097,
484.4148,53.3457,
485.4148,42.2911,
486.4148,37.5775,
487.4148,46.6059,
488.4148,59.5845,
489.4148,60.62,
490.4148,60.3766,
491.4148,78.8384,
492.4148,96.9983,
493.4148,81.9986,
494.4148,51.8682,
495.4148,45.1732,
496.4148,60.5673,
497.4148,77.8091,
498.4148,81.5743,
499.4148,62.9303,
500.4148,43.5539,
501.4148,53.0995,
502.4148,75.5879,
503.4148,79.703,
504.4148,71.2601,
505.4148,69.116,
506.4148,70.1938,
507.4148,64.1128,
508.4148,53.6591,
509.4148,46.3923,
510.4148,45.9627,
511.4148,53.2512,
512.4148,61.6176,
513.4148,62.8778,
514.4148,56.5531,
515.4148,45.8295,
516.4148,38.6934,
517.4148,42.0794,
518.4148,48.1881,
519.4148,47.256,
520.4148,44.8677,
521.4148,49.3472,
522.4148,58.2776,
523.4148,65.9345,
524.4148,66.5193,
525.4148,57.1769,
526.4148,48.2228,
527.4148,49.8641,
528.4148,56.4403,
529.4148,60.8558,
530.4148,66.9806,
531.4148,77.066,
532.4148,76.9021,
533.4148,56.9091,
534.4148,37.9022,
535.4148,38.5757,
536.4148,47.6671,
537.4148,51.8418,
538.4148,51.1625,
539.4148,48.2681,
540.4148,45.5786,
541.4148,44.4754,
542.4148,43.5425,
543.4148,41.9612,
544.4148,41.7678,
545.4148,45.2033,
546.4148,53.857,
547.4148,66.5889,
548.4148,76.1898,
549.4148,78.9074,
550.4148,80.3395,
551.4148,86.8259,
552.4148,103.649,
553.4148,126.999,
554.4148,136.27,
555.4148,127.079,
556.4148,126.84,
557.4148,146.818,
558.4148,166.413,
559.4148,173.769,
560.4148,175.011,
561.4148,172.72,
562.4148,162.421,
563.4148,148.572,
564.4148,147.808,
565.4148,160.754,
566.4148,167.583,
567.4148,161.563,
568.4148,152.24,
569.4148,142.598,
570.4148,127.956,
571.4148,110.309,
572.4148,98.1909,
573.4148,91.9642,
574.4148,84.6704,
575.4148,76.1638,
576.4148,71.9344,
577.4148,72.4146,
578.4148,74.0795,
579.4148,74.8638,
580.4148,73.9955,
581.4148,72.7907,
582.4148,73.555,
583.4148,74.7643,
584.4148,73.0766,
585.4148,69.803,
586.4148,68.1195,
587.4148,65.2871,
588.4148,56.9381,
589.4148,48.7878,
590.4148,49.5959,
591.4148,57.7189,
592.4148,66.6536,
593.4148,66.496,
594.4148,50.9331,
595.4148,39.7917,
596.4148,54.544,
597.4148,82.3439,
598.4148,103.247,
599.4148,111.25,
600.4148,105.451,
601.4148,90.1192,
602.4148,72.2328,
603.4148,63.798,
604.4148,71.7869,
605.4148,84.4499,
606.4148,90.1014,
607.4148,86.9977,
608.4148,76.8225,
609.4148,65.5026,
610.4148,57.4708,
611.4148,52.5229,
612.4148,49.1744,
613.4148,44.6956,
614.4148,41.1476,
615.4148,48.9177,
616.4148,64.6927,
617.4148,63.211,
618.4148,44.2419,
619.4148,43.8633,
620.4148,65.941,
621.4148,72.4461,
622.4148,57.8005,
623.4148,53.8681,
624.4148,66.5135,
625.4148,75.3347,
626.4148,81.0466,
627.4148,102.075,
628.4148,130.982,
629.4148,142.514,
630.4148,145.984,
631.4148,171.222,
632.4148,209.698,
633.4148,232.814,
634.4148,243.804,
635.4148,259.287,
636.4148,266.214,
637.4148,243.909,
638.4148,214.25,
639.4148,207.784,
640.4148,204.321,
641.4148,175.251,
642.4148,140.028,
643.4148,123.91,
644.4148,113.455,
645.4148,93.3585,
646.4148,79.369,
647.4148,84.2378,
648.4148,88.7481,
649.4148,78.3346,
650.4148,68.1925,
651.4148,70.3107,
652.4148,77.3887,
653.4148,80.6761,
654.4148,74.1588,
655.4148,58.0453,
656.4148,42.8518,
657.4148,37.3651,
658.4148,45.8681,
659.4148,61.083,
660.4148,61.7137,
661.4148,47.8973,
662.4148,44.4112,
663.4148,54.4477,
664.4148,59.4466,
665.4148,57.8703,
666.4148,62.4957,
667.4148,71.0124,
668.4148,70.9862,
669.4148,65.7435,
670.4148,66.9072,
671.4148,68.4428,
672.4148,57.487,
673.4148,43.4251,
674.4148,42.8912,
675.4148,52.3367,
676.4148,61.5138,
677.4148,67.0959,
678.4148,69.457,
679.4148,75.1801,
680.4148,88.6643,
681.4148,99.6424,
682.4148,98.2095,
683.4148,86.3284,
684.4148,72.0086,
685.4148,72.9574,
686.4148,91.2259,
687.4148,91.1858,
688.4148,60.2079,
689.4148,37.2901,
690.4148,40.9103,
691.4148,48.8818,
692.4148,50.0623,
693.4148,52.493,
694.4148,59.32,
695.4148,66.7525,
696.4148,71.9026,
697.4148,73.127,
698.4148,69.3691,
699.4148,60.4448,
700.4148,51.633,
701.4148,51.1123,
702.4148,59.4517,
703.4148,71.8842,
704.4148,75.8494,
705.4148,60.1168,
706.4148,45.1267,
707.4148,55.3461,
708.4148,71.9754,
709.4148,69.7742,
710.4148,55.0906,
711.4148,41.2414,
712.4148,36.9056,
713.4148,43.9751,
714.4148,48.14,
715.4148,43.1249,
716.4148,47.474,
717.4148,66.4735,
718.4148,74.0028,
719.4148,60.5752,
720.4148,47.9479,
721.4148,47.4854,
722.4148,53.6633,
723.4148,64.2235,
724.4148,81.5426,
725.4148,106.306,
726.4148,137.307,
727.4148,170.831,
728.4148,201.223,
729.4148,221.289,
730.4148,226.261,
731.4148,239.087,
732.4148,286.614,
733.4148,330.951,
734.4148,324.779,
735.4148,307.915,
736.4148,330.286,
737.4148,366.025,
738.4148,384.382,
739.4148,403.715,
740.4148,444.83,
741.4148,508.048,
742.4148,585.164,
743.4148,657.107,
744.4148,717.178,
745.4148,782.122,
746.4148,853.932,
747.4148,910.983,
748.4148,941.051,
749.4148,944.586,
750.4148,920.614,
751.4148,867.172,
752.4148,796.463,
753.4148,728.617,
754.4148,653.591,
755.4148,548.497,
756.4148,437.17,
757.4148,358.332,
758.4148,299.352,
759.4148,235.092,
760.4148,177.816,
761.4148,142.477,
762.4148,109.997,
763.4148,66.041,
764.4148,35.2149,
765.4148,34.2127,
766.4148,43.6464,
767.4148,46.3232,
768.4148,39.1938,
769.4148,29.0455,
770.4148,34.4742,
771.4148,54.865,
772.4148,66.2267,
773.4148,61.9676,
774.4148,53.4261,
775.4148,50.5285,
776.4148,60.1008,
777.4148,73.2062,
778.4148,74.1282,
779.4148,69.5546,
780.4148,73.1897,
781.4148,75.4816,
782.4148,63.4121,
783.4148,48.6544,
784.4148,44.7275,
785.4148,46.0934,
786.4148,45.9045,
787.4148,45.3964,
788.4148,45.4994,
789.4148,43.6255,
790.4148,42.1042,
791.4148,51.9412,
792.4148,73.1938,
793.4148,90.8032,
794.4148,97.4436,
795.4148,95.191,
796.4148,91.8331,
797.4148,97.9312,
798.4148,106.603,
799.4148,102.529,
800.4148,93.3289,
801.4148,95.3731,
802.4148,108.288,
803.4148,124.387,
804.4148,131.872,
805.4148,124.711,
806.4148,121.252,
807.4148,135.248,
808.4148,154.057,
809.4148,163.958,
810.4148,158.005,
811.4148,139.689,
812.4148,127.128,
813.4148,124.117,
814.4148,116.341,
815.4148,106.755,
816.4148,113.458,
817.4148,124.199,
818.4148,108.665,
819.4148,81.1785,
820.4148,75.8683,
821.4148,87.5489,
822.4148,96.6506,
823.4148,97.1044,
824.4148,90.0336,
825.4148,87.3607,
826.4148,96.3196,
827.4148,103.364,
828.4148,100.825,
829.4148,101.45,
830.4148,108.962,
831.4148,108.512,
832.4148,101.019,
833.4148,108.087,
834.4148,128.045,
835.4148,137.261,
836.4148,133.04,
837.4148,127.994,
838.4148,128.578,
839.4148,136.028,
840.4148,140.578,
841.4148,132.713,
842.4148,126.619,
843.4148,135.385,
844.4148,141.834,
845.4148,135.301,
846.4148,140.276,
847.4148,164.448,
848.4148,171.597,
849.4148,149.782,
850.4148,129.86,
851.4148,124.196,
852.4148,121.191,
853.4148,118.505,
854.4148,121.45,
855.4148,121.233,
856.4148,103.208,
857.4148,78.5426,
858.4148,66.3609,
859.4148,61.58,
860.4148,54.2027,
861.4148,48.4123,
862.4148,49.0435,
863.4148,52.4657,
864.4148,56.0988,
865.4148,62.7756,
866.4148,71.6454,
867.4148,75.124,
868.4148,69.7903,
869.4148,58.0105,
870.4148,46.2363,
871.4148,43.5323,
872.4148,51.041,
873.4148,63.7618,
874.4148,69.3035,
875.4148,57.4112,
876.4148,49.29,
877.4148,65.1201,
878.4148,77.7276,
879.4148,65.1243,
880.4148,53.0222,
881.4148,59.2263,
882.4148,68.4616,
883.4148,70.2861,
884.4148,67.5024,
885.4148,63.3664,
886.4148,60.4237,
887.4148,60.9323,
888.4148,66.0197,
889.4148,67.1202,
890.4148,53.9332,
891.4148,44.6565,
892.4148,60.0832,
893.4148,73.208,
894.4148,58.1684,
895.4148,43.5904,
896.4148,52.6603,
897.4148,66.8002,
898.4148,71.4922,
899.4148,70.2814,
900.4148,68.1191,
901.4148,69.0344,
902.4148,69.166,
903.4148,58.666,
904.4148,43.6568,
905.4148,39.1251,
906.4148,43.0416,
907.4148,47.4644,
908.4148,58.0414,
909.4148,79.1624,
910.4148,92.4787,
911.4148,86.6219,
912.4148,83.1352,
913.4148,92.3044,
914.4148,93.3936,
915.4148,79.8977,
916.4148,68.6501,
917.4148,65.5881,
918.4148,64.8662,
919.4148,66.5304,
920.4148,73.7626,
921.4148,78.4023,
922.4148,69.9398,
923.4148,56.8626,
924.4148,50.9746,
925.4148,51.178,
926.4148,56.1875,
927.4148,72.3041,
928.4148,92.4477,
929.4148,83.427,
930.4148,49.7064,
931.4148,46.2871,
932.4148,73.0292,
933.4148,78.7458,
934.4148,61.217,
935.4148,49.4492,
936.4148,49.8202,
937.4148,57.3403,
938.4148,64.7645,
939.4148,65.7675,
940.4148,59.7678,
941.4148,51.1937,
942.4148,53.2918,
943.4148,67.1427,
944.4148,71.9733,
945.4148,65.4396,
946.4148,67.8585,
947.4148,75.2259,
948.4148,65.2521,
949.4148,46.5659,
950.4148,42.3,
951.4148,49.9435,
952.4148,58.0093,
953.4148,61.3619,
954.4148,59.1338,
955.4148,57.814,
956.4148,60.7293,
957.4148,62.341,
958.4148,60.4693,
959.4148,59.1086,
960.4148,64.1985,
961.4148,81.191,
962.4148,91.6261,
963.4148,68.5938,
964.4148,44.609,
965.4148,63.0946,
966.4148,82.8206,
967.4148,61.5361,
968.4148,41.6534,
969.4148,53.8865,
970.4148,64.3273,
971.4148,58.0373,
972.4148,61.2578,
973.4148,77.4287,
974.4148,83.5311,
975.4148,73.2108,
976.4148,54.2675,
977.4148,43.3744,
978.4148,55.492,
979.4148,73.3658,
980.4148,75.0637,
981.4148,60.1288,
982.4148,40.2179,
983.4148,43.7228,
984.4148,72.6113,
985.4148,84.8496,
986.4148,69.0527,
987.4148,50.2887,
988.4148,43.9565,
989.4148,54.713,
990.4148,68.1979,
991.4148,65.6164,
992.4148,54.8098,
993.4148,50.0805,
994.4148,57.3731,
995.4148,72.5086,
996.4148,72.8341,
997.4148,53.6535,
998.4148,40.6155,
999.4148,41.9244,
1000.4148,45.8983,
1001.4148,50.2794,
1002.4148,58.5654,
1003.4148,62.5243,
1004.4148,53.103,
1005.4148,44.6466,
1006.4148,50.598,
1007.4148,58.9225,
1008.4148,59.5471,
1009.4148,56.6813,
1010.4148,52.9057,
1011.4148,46.4872,
1012.4148,42.4716,
1013.4148,50.9606,
1014.4148,65.1917,
1015.4148,70.5554,
1016.4148,71.1503,
1017.4148,74.9558,
1018.4148,73.6724,
1019.4148,63.3588,
1020.4148,63.0908,
1021.4148,75.7924,
1022.4148,70.3694,
1023.4148,45.5402,
1024.4148,36.7307,
1025.4148,47.2116,
1026.4148,55.5051,
1027.4148,57.7654,
1028.4148,59.7278,
1029.4148,67.7272,
1030.4148,82.7205,
1031.4148,87.0856,
1032.4148,72.1961,
1033.4148,56.9049,
1034.4148,53.9397,
1035.4148,62.1866,
1036.4148,75.3471,
1037.4148,84.0648,
1038.4148,87.7991,
1039.4148,90.1325,
1040.4148,85.6891,
1041.4148,69.2888,
1042.4148,50.9196,
1043.4148,42.3724,
1044.4148,50.2532,
1045.4148,67.8502,
1046.4148,69.2318,
1047.4148,53.7146,
1048.4148,47.3532,
1049.4148,51.7154,
1050.4148,52.4858,
1051.4148,50.9865,
1052.4148,53.3562,
1053.4148,54.9654,
1054.4148,54.148,
1055.4148,65.8231,
1056.4148,87.1975,
1057.4148,80.4212,
1058.4148,50.435,
1059.4148,51.4061,
1060.4148,76.8843,
1061.4148,79.6591,
1062.4148,68.3812,
1063.4148,71.5797,
1064.4148,80.6047,
1065.4148,80.7718,
1066.4148,72.993,
1067.4148,65.7712,
1068.4148,75.6114,
1069.4148,94.8779,
1070.4148,88.993,
1071.4148,67.4703,
1072.4148,68.8872,
1073.4148,79.5209,
1074.4148,68.6344,
1075.4148,51.0669,
1076.4148,46.6592,
1077.4148,48.3954,
1078.4148,48.0179,
1079.4148,44.3335,
1080.4148,41.027,
1081.4148,45.8835,
1082.4148,55.5294,
1083.4148,59.8133,
1084.4148,63.7629,
1085.4148,77.1751,
1086.4148,97.4056,
1087.4148,114.997,
1088.4148,111.88,
1089.4148,93.2967,
1090.4148,106.371,
1091.4148,147.795,
1092.4148,158.026,
1093.4148,142.499,
1094.4148,146.386,
1095.4148,150.851,
1096.4148,124.281,
1097.4148,104.83,
1098.4148,119.826,
1099.4148,120.581,
1100.4148,90.2443,
1101.4148,79.9346,
1102.4148,91.8929,
1103.4148,77.9757,
1104.4148,47.6992,
1105.4148,41.0264,
1106.4148,48.7851,
1107.4148,48.602,
1108.4148,41.6212,
1109.4148,37.7096,
1110.4148,53.4618,
1111.4148,84.4684,
1112.4148,97.8495,
1113.4148,93.2935,
1114.4148,97.8577,
1115.4148,112.99,
1116.4148,127.055,
1117.4148,135.246,
1118.4148,138.891,
1119.4148,151.046,
1120.4148,176.332,
1121.4148,199.935,
1122.4148,215.13,
1123.4148,226.913,
1124.4148,240.989,
1125.4148,262.718,
1126.4148,294.67,
1127.4148,334.65,
1128.4148,365.896,
1129.4148,381.604,
1130.4148,407.533,
1131.4148,446.497,
1132.4148,462.791,
1133.4148,461.748,
1134.4148,483.125,
1135.4148,512.758,
1136.4148,515.996,
1137.4148,513.539,
1138.4148,529.442,
1139.4148,541.379,
1140.4148,538.124,
1141.4148,544.026,
1142.4148,560.992,
1143.4148,564.188,
1144.4148,560.292,
1145.4148,573.895,
1146.4148,598.176,
1147.4148,619.708,
1148.4148,649.739,
1149.4148,694.311,
1150.4148,735.341,
1151.4148,766.634,
1152.4148,800.978,
1153.4148,833.778,
1154.4148,847.635,
1155.4148,844.774,
1156.4148,834.852,
1157.4148,816.724,
1158.4148,789.746,
1159.4148,762.379,
1160.4148,731.661,
1161.4148,675.992,
1162.4148,596.285,
1163.4148,515.011,
1164.4148,446.006,
1165.4148,393.358,
1166.4148,337.901,
1167.4148,265.931,
1168.4148,202.105,
1169.4148,160.87,
1170.4148,127.397,
1171.4148,96.6085,
1172.4148,75.5965,
1173.4148,61.4316,
1174.4148,47.5706,
1175.4148,44.8732,
1176.4148,60.983,
1177.4148,72.5497,
1178.4148,64.0302,
1179.4148,46.4322,
1180.4148,36.9196,
1181.4148,53.3388,
1182.4148,78.0452,
1183.4148,78.1682,
1184.4148,73.9915,
1185.4148,90.0863,
1186.4148,94.2393,
1187.4148,73.1111,
1188.4148,73.2261,
1189.4148,100.795,
1190.4148,110.589,
1191.4148,100.794,
1192.4148,97.6526,
1193.4148,101.798,
1194.4148,106.352,
1195.4148,115.014,
1196.4148,127.302,
1197.4148,129.993,
1198.4148,119.53,
1199.4148,105.344,
1200.4148,95.3766,
1201.4148,94.4076,
1202.4148,96.7436,
1203.4148,93.9607,
1204.4148,82.735,
1205.4148,66.6237,
1206.4148,60.0744,
1207.4148,64.5952,
1208.4148,66.0804,
1209.4148,58.9824,
1210.4148,45.531,
1211.4148,36.8116,
1212.4148,41.1526,
1213.4148,46.3616,
1214.4148,43.3934,
1215.4148,37.287,
1216.4148,35.7594,
1217.4148,46.3461,
1218.4148,60.5883,
1219.4148,63.7075,
1220.4148,63.151,
1221.4148,69.6307,
1222.4148,79.1472,
1223.4148,89.1001,
1224.4148,103.953,
1225.4148,121.661,
1226.4148,133.786,
1227.4148,140.343,
1228.4148,146.39,
1229.4148,156.878,
1230.4148,170.204,
1231.4148,167.098,
1232.4148,145.82,
1233.4148,135.345,
1234.4148,143.884,
1235.4148,158.689,
1236.4148,166.759,
1237.4148,159.618,
1238.4148,147.85,
1239.4148,142.996,
1240.4148,146.075,
1241.4148,152.003,
1242.4148,150.47,
1243.4148,144.698,
1244.4148,145.509,
1245.4148,141.312,
1246.4148,119.385,
1247.4148,99.2556,
1248.4148,96.706,
1249.4148,104.896,
1250.4148,113.315,
1251.4148,111.494,
1252.4148,102.146,
1253.4148,95.1256,
1254.4148,92.3952,
1255.4148,90.4435,
1256.4148,78.1012,
1257.4148,57.2276,
1258.4148,52.023,
1259.4148,61.0386,
1260.4148,60.0231,
1261.4148,50.0426,
1262.4148,43.6539,
1263.4148,43.7848,
1264.4148,48.8126,
1265.4148,53.0452,
1266.4148,59.7464,
1267.4148,83.0556,
1268.4148,116.101,
1269.4148,139.529,
1270.4148,156.781,
1271.4148,177.555,
1272.4148,201.248,
1273.4148,225.839,
1274.4148,250.683,
1275.4148,275.321,
1276.4148,299.444,
1277.4148,323.753,
1278.4148,349.745,
1279.4148,380.015,
1280.4148,412.277,
1281.4148,431.679,
1282.4148,435.752,
1283.4148,440.588,
1284.4148,452.185,
1285.4148,467.579,
1286.4148,481.311,
1287.4148,487.342,
1288.4148,480.937,
1289.4148,467.045,
1290.4148,466.401,
1291.4148,477.919,
1292.4148,479.531,
1293.4148,469.03,
1294.4148,455.395,
1295.4148,447.126,
1296.4148,447.331,
1297.4148,447.031,
1298.4148,441.134,
1299.4148,431.748,
1300.4148,422.232,
1301.4148,414.998,
1302.4148,403.416,
1303.4148,382.724,
1304.4148,363.897,
1305.4148,351.765,
1306.4148,336.948,
1307.4148,316.242,
1308.4148,293.258,
1309.4148,273.809,
1310.4148,261.128,
1311.4148,244.877,
1312.4148,219.162,
1313.4148,193.31,
1314.4148,173.124,
1315.4148,158.205,
1316.4148,143.283,
1317.4148,123.178,
1318.4148,106.094,
1319.4148,98.7997,
1320.4148,94.7061,
1321.4148,88.7965,
1322.4148,80.6754,
1323.4148,69.8812,
1324.4148,56.5697,
1325.4148,46.1469,
1326.4148,43.4004,
1327.4148,45.5921,
1328.4148,50.1992,
1329.4148,56.9704,
1330.4148,62.7089,
1331.4148,62.9956,
1332.4148,63.3396,
1333.4148,68.0554,
1334.4148,62.1274,
1335.4148,45.0448,
1336.4148,48.0322,
1337.4148,67.4248,
1338.4148,68.4086,
1339.4148,61.4559,
1340.4148,69.9858,
1341.4148,73.8105,
1342.4148,58.8649,
1343.4148,45.8309,
1344.4148,43.5942,
1345.4148,44.5829,
1346.4148,49.5239,
1347.4148,60.5766,
1348.4148,62.2577,
1349.4148,48.0602,
1350.4148,43.1781,
1351.4148,55.4059,
1352.4148,67.5643,
1353.4148,75.0489,
1354.4148,80.1909,
1355.4148,75.0071,
1356.4148,59.7794,
1357.4148,63.4156,
1358.4148,89.853,
1359.4148,106.493,
1360.4148,102.292,
1361.4148,84.7042,
1362.4148,72.1777,
1363.4148,78.5633,
1364.4148,94.8766,
1365.4148,102.31,
1366.4148,77.2057,
1367.4148,43.4139,
1368.4148,48.8575,
1369.4148,75.5056,
1370.4148,89.8252,
1371.4148,85.438,
1372.4148,75.0012,
1373.4148,88.4841,
1374.4148,108.057,
1375.4148,89.9288,
1376.4148,62.4895,
1377.4148,62.5502,
1378.4148,68.1668,
1379.4148,66.9159,
1380.4148,74.9324,
1381.4148,80.4947,
1382.4148,57.635,
1383.4148,39.4874,
1384.4148,58.81,
1385.4148,76.9345,
1386.4148,72.6806,
1387.4148,69.9217,
1388.4148,73.5047,
1389.4148,72.3137,
1390.4148,66.4333,
1391.4148,61.4727,
1392.4148,65.6417,
1393.4148,75.4795,
1394.4148,71.0594,
1395.4148,54.7454,
1396.4148,44.6427,
1397.4148,44.3297,
1398.4148,50.0926,
1399.4148,53.7953,
1400.4148,50.8896,
1401.4148,43.6732,
1402.4148,42.4757,
1403.4148,58.0152,
1404.4148,70.6596,
1405.4148,63.1152,
1406.4148,54.7766,
1407.4148,55.1805,
1408.4148,52.9279,
1409.4148,48.9314,
1410.4148,51.1591,
1411.4148,53.4825,
1412.4148,50.9329,
1413.4148,53.6646,
1414.4148,61.8536,
1415.4148,61.2378,
1416.4148,51.5607,
1417.4148,42.1632,
1418.4148,42.1335,
1419.4148,52.6763,
1420.4148,57.3586,
1421.4148,51.1685,
1422.4148,44.4884,
1423.4148,40.2946,
1424.4148,38.3486,
1425.4148,45.6392,
1426.4148,65.0514,
1427.4148,86.8704,
1428.4148,104.984,
1429.4148,118.966,
1430.4148,131.104,
1431.4148,144.596,
1432.4148,161.197,
1433.4148,181.327,
1434.4148,203.827,
1435.4148,231.907,
1436.4148,271.504,
1437.4148,318.023,
1438.4148,361.75,
1439.4148,392.16,
1440.4148,411.482,
1441.4148,440.897,
1442.4148,479.842,
1443.4148,510.802,
1444.4148,525.744,
1445.4148,526.644,
1446.4148,532.435,
1447.4148,551.064,
1448.4148,571.573,
1449.4148,579.683,
1450.4148,566.327,
1451.4148,555.527,
1452.4148,567.069,
1453.4148,587.203,
1454.4148,605.954,
1455.4148,622.39,
1456.4148,631.464,
1457.4148,628.579,
1458.4148,621.305,
1459.4148,622.033,
1460.4148,644.818,
1461.4148,672.968,
1462.4148,669.648,
1463.4148,657.918,
1464.4148,669.519,
1465.4148,678.051,
1466.4148,674.987,
1467.4148,693.016,
1468.4148,723.4,
1469.4148,733.791,
1470.4148,744.426,
1471.4148,773.153,
1472.4148,786.935,
1473.4148,780.942,
1474.4148,787.923,
1475.4148,789.898,
1476.4148,753.914,
1477.4148,712.922,
1478.4148,693.875,
1479.4148,679.212,
1480.4148,654.549,
1481.4148,614.67,
1482.4148,566.09,
1483.4148,520.613,
1484.4148,490.441,
1485.4148,468.22,
1486.4148,421.305,
1487.4148,358.001,
1488.4148,310.561,
1489.4148,278.495,
1490.4148,248.83,
1491.4148,205.793,
1492.4148,158.662,
1493.4148,139.332,
1494.4148,134.785,
1495.4148,118.382,
1496.4148,102.248,
1497.4148,95.4725,
1498.4148,87.5635,
1499.4148,78.6579,
1500.4148,76.5825,
1501.4148,74.7872,
1502.4148,65.6314,
1503.4148,53.1079,
1504.4148,47.8138,
1505.4148,62.4528,
1506.4148,73.1124,
1507.4148,51.7266,
1508.4148,40.9694,
1509.4148,63.4344,
1510.4148,73.5267,
1511.4148,62.0961,
1512.4148,54.9194,
1513.4148,57.6095,
1514.4148,66.0965,
1515.4148,73.365,
1516.4148,71.689,
1517.4148,55.2779,
1518.4148,41.8052,
1519.4148,53.1409,
1520.4148,68.282,
1521.4148,67.3339,
1522.4148,54.7832,
1523.4148,44.754,
1524.4148,53.3963,
1525.4148,69.5232,
1526.4148,78.0728,
1527.4148,84.3015,
1528.4148,86.8578,
1529.4148,73.8196,
1530.4148,57.6004,
1531.4148,57.3955,
1532.4148,58.121,
1533.4148,51.958,
1534.4148,59.282,
1535.4148,74.3613,
1536.4148,72.0578,
1537.4148,61.153,
1538.4148,57.2497,
1539.4148,58.6181,
1540.4148,64.8393,
1541.4148,78.4364,
1542.4148,82.8962,
1543.4148,63.5581,
1544.4148,53.3953,
1545.4148,64.7809,
1546.4148,59.6597,
1547.4148,42.7009,
1548.4148,46.4726,
1549.4148,54.2106,
1550.4148,47.2386,
1551.4148,42.5771,
1552.4148,52.7048,
1553.4148,76.1287,
1554.4148,80.7473,
1555.4148,47.0556,
1556.4148,43.2126,
1557.4148,85.7501,
1558.4148,97.1693,
1559.4148,70.159,
1560.4148,44.309,
1561.4148,38.1641,
1562.4148,50.7593,
1563.4148,56.6605,
1564.4148,51.1337,
1565.4148,48.1712,
1566.4148,47.8235,
1567.4148,45.8159,
1568.4148,41.986,
1569.4148,42.1926,
1570.4148,55.6261,
1571.4148,64.7895,
1572.4148,51.5997,
1573.4148,47.0664,
1574.4148,67.0187,
1575.4148,87.6442,
1576.4148,93.62,
1577.4148,81.7899,
1578.4148,67.519,
1579.4148,66.7588,
1580.4148,84.4507,
1581.4148,105.623,
1582.4148,105.524,
1583.4148,105.597,
1584.4148,130.496,
1585.4148,164.248,
1586.4148,195.589,
1587.4148,227.764,
1588.4148,276.351,
1589.4148,351.65,
1590.4148,425.519,
1591.4148,482.991,
1592.4148,540.132,
1593.4148,608.749,
1594.4148,691.021,
1595.4148,766.135,
1596.4148,818.084,
1597.4148,851.628,
1598.4148,873.816,
1599.4148,887.172,
1600.4148,868.077,
1601.4148,803.436,
1602.4148,725.261,
1603.4148,648.552,
1604.4148,565.281,
1605.4148,473.123,
1606.4148,378.703,
1607.4148,305.324,
1608.4148,261.82,
1609.4148,234.271,
1610.4148,198.723,
1611.4148,142.001,
1612.4148,106.356,
1613.4148,110.884,
1614.4148,122.736,
1615.4148,129.263,
1616.4148,132.213,
1617.4148,124.476,
1618.4148,103.67,
1619.4148,80.884,
1620.4148,72.4741,
1621.4148,89.3596,
1622.4148,96.3516,
1623.4148,76.1596,
1624.4148,81.0177,
1625.4148,106.37,
1626.4148,97.166,
1627.4148,74.3781,
1628.4148,70.97,
1629.4148,69.7166,
1630.4148,61.4412,
1631.4148,54.7428,
1632.4148,59.6042,
1633.4148,76.8523,
1634.4148,79.6232,
1635.4148,64.6425,
1636.4148,62.0478,
1637.4148,71.8758,
1638.4148,79.169,
1639.4148,79.4185,
1640.4148,75.8379,
1641.4148,77.8468,
1642.4148,76.8461,
1643.4148,61.5032,
1644.4148,57.1849,
1645.4148,71.4659,
1646.4148,69.9412,
1647.4148,58.285,
1648.4148,63.6619,
1649.4148,65.7953,
1650.4148,49.9276,
1651.4148,37.1997,
1652.4148,39.5269,
1653.4148,55.128,
1654.4148,65.5356,
1655.4148,60.1747,
1656.4148,55.3931,
1657.4148,55.2527,
1658.4148,51.7307,
1659.4148,47.4665,
1660.4148,47.5165,
1661.4148,52.7551,
1662.4148,57.6203,
1663.4148,53.5819,
1664.4148,50.0251,
1665.4148,56.2965,
1666.4148,63.2054,
1667.4148,61.7623,
1668.4148,49.1896,
1669.4148,44.3909,
1670.4148,59.4146,
1671.4148,62.8561,
1672.4148,49.3364,
1673.4148,47.3949,
1674.4148,56.8206,
1675.4148,67.1685,
1676.4148,80.2689,
1677.4148,87.1821,
1678.4148,69.1734,
1679.4148,56.2473,
1680.4148,78.46,
1681.4148,89.6934,
1682.4148,69.6666,
1683.4148,47.7692,
1684.4148,41.8961,
1685.4148,55.3026,
1686.4148,69.1909,
1687.4148,72.3695,
1688.4148,69.4661,
1689.4148,65.6687,
1690.4148,64.6451,
1691.4148,65.8396,
1692.4148,66.6653,
1693.4148,63.1797,
1694.4148,53.1659,
1695.4148,40.4027,
1696.4148,45.2589,
1697.4148,64.1423,
1698.4148,60.4569,
1699.4148,44.5264,
1700.4148,44.0202,
1701.4148,48.1862,
1702.4148,52.2192,
1703.4148,68.9308,
1704.4148,87.5126,
1705.4148,89.0627,
1706.4148,77.1054,
1707.4148,67.0413,
1708.4148,79.0708,
1709.4148,86.433,
1710.4148,58.7116,
1711.4148,46.5816,
1712.4148,64.4604,
1713.4148,59.6306,
1714.4148,43.1071,
1715.4148,49.4164,
1716.4148,60.9631,
1717.4148,65.4532,
1718.4148,71.7584,
1719.4148,80.2623,
1720.4148,87.2223,
1721.4148,93.4281,
1722.4148,99.134,
1723.4148,102.716,
1724.4148,102.91,
1725.4148,100.747,
1726.4148,103.423,
1727.4148,109.214,
1728.4148,106.168,
1729.4148,102.208,
1730.4148,108.593,
1731.4148,115.476,
1732.4148,115.216,
1733.4148,107.91,
1734.4148,97.3584,
1735.4148,88.3481,
1736.4148,84.0631,
1737.4148,87.7965,
1738.4148,100.272,
1739.4148,100.241,
1740.4148,75.2193,
1741.4148,59.8239,
1742.4148,65.3957,
1743.4148,72.5579,
1744.4148,69.4221,
1745.4148,54.5022,
1746.4148,42.1038,
1747.4148,41.799,
1748.4148,53.7539,
1749.4148,61.8553,
1750.4148,57.3721,
1751.4148,59.2878,
1752.4148,65.1568,
1753.4148,56.7294,
1754.4148,47.809,
1755.4148,50.7072,
1756.4148,53.7116,
1757.4148,50.258,
1758.4148,42.6685,
1759.4148,45.8031,
1760.4148,62.8873,
1761.4148,71.955,
1762.4148,70.3274,
1763.4148,69.297,
1764.4148,74.4157,
1765.4148,78.2286,
1766.4148,59.5628,
1767.4148,39.9064,
1768.4148,52.3841,
1769.4148,74.1936,
1770.4148,81.4127,
1771.4148,68.9002,
1772.4148,59.3706,
1773.4148,71.7048,
1774.4148,69.8111,
1775.4148,53.0982,
1776.4148,66.1615,
1777.4148,82.6908,
1778.4148,69.1332,
1779.4148,61.7912,
1780.4148,73.747,
1781.4148,85.0299,
1782.4148,89.7139,
1783.4148,84.8176,
1784.4148,61.8251,
1785.4148,40.2027,
1786.4148,53.9098,
1787.4148,81.7376,
1788.4148,96.0168,
1789.4148,92.0232,
1790.4148,75.2108,
1791.4148,57.684,
1792.4148,55.6396,
1793.4148,65.9675,
1794.4148,58.1852,
1795.4148,48.709,
1796.4148,64.887,
1797.4148,67.6698,
1798.4148,52.072,
1799.4148,66.6527,
1800.4148,80.9835,
1801.4148,56.2428,
1802.4148,45.3691,
1803.4148,59.6997,
1804.4148,57.4116,
1805.4148,51.2465,
1806.4148,59.8487,
1807.4148,63.2837,
1808.4148,53.9702,
1809.4148,41.5577,
1810.4148,45.2127,
1811.4148,65.7885,
1812.4148,68.8222,
1813.4148,57.6525,
1814.4148,57.4008,
1815.4148,63.8202,
1816.4148,65.2201,
1817.4148,52.865,
1818.4148,45.0514,
1819.4148,58.3594,
1820.4148,59.1831,
1821.4148,45.8782,
1822.4148,55.8672,
1823.4148,66.3418,
1824.4148,51.5046,
1825.4148,41.7843,
1826.4148,50.1593,
1827.4148,65.4187,
1828.4148,70.4627,
1829.4148,61.3871,
1830.4148,59.9308,
1831.4148,69.2818,
1832.4148,77.0268,
1833.4148,68.3579,
1834.4148,47.9776,
1835.4148,45.7011,
1836.4148,64.7027,
1837.4148,89.5279,
1838.4148,95.9421,
1839.4148,85.0434,
1840.4148,81.404,
1841.4148,74.7233,
1842.4148,59.6266,
1843.4148,69.5808,
1844.4148,89.2163,
1845.4148,75.5652,
1846.4148,61.4941,
1847.4148,67.7354,
1848.4148,62.6461,
1849.4148,49.0183,
1850.4148,45.4586,
1851.4148,43.8747,
1852.4148,43.6471,
1853.4148,56.1871,
1854.4148,66.1829,
1855.4148,59.3353,
1856.4148,52.5011,
1857.4148,53.7329,
1858.4148,58.0548,
1859.4148,54.6092,
1860.4148,43.7783,
1861.4148,45.6591,
1862.4148,50.6017,
1863.4148,41.5334,
1864.4148,46.6429,
1865.4148,70.5191,
1866.4148,79.5532,
1867.4148,68.0391,
1868.4148,49.5008,
1869.4148,48.5288,
1870.4148,58.3832,
1871.4148,51.4513,
1872.4148,44.4205,
1873.4148,48.3466,
1874.4148,43.1472,
1875.4148,45.3628,
1876.4148,75.6223,
1877.4148,82.9396,
1878.4148,56.279,
1879.4148,44.7749,
1880.4148,48.666,
1881.4148,53.2416,
1882.4148,62.4536,
1883.4148,68.6275,
1884.4148,59.2603,
1885.4148,56.1103,
1886.4148,67.5222,
1887.4148,66.8869,
1888.4148,54.2057,
1889.4148,44.0432,
1890.4148,41.9583,
1891.4148,51.7041,
1892.4148,72.6334,
1893.4148,76.3871,
1894.4148,51.0975,
1895.4148,38.5555,
1896.4148,48.2494,
1897.4148,61.5524,
1898.4148,64.2419,
1899.4148,54.7148,
1900.4148,46.2157,
1901.4148,46.1259,
1902.4148,54.6098,
1903.4148,62.5934,
1904.4148,69.2281,
1905.4148,78.2923,
1906.4148,71.3806,
1907.4148,47.142,
1908.4148,42.0458,
1909.4148,58.409,
1910.4148,76.4019,
1911.4148,80.2983,
1912.4148,69.1386,
1913.4148,57.2813,
1914.4148,58.2627,
1915.4148,69.2742,
1916.4148,59.2252,
1917.4148,44.8136,
1918.4148,61.0583,
1919.4148,69.5879,
1920.4148,51.3462,
1921.4148,35.942,
1922.4148,52.5961,
1923.4148,95.3632,
1924.4148,84.9334,
1925.4148,42.3849,
1926.4148,52.5142,
1927.4148,64.8901,
1928.4148,48.3911,
1929.4148,52.8286,
1930.4148,70.4019,
1931.4148,73.4911,
1932.4148,73.1657,
1933.4148,67.9197,
1934.4148,47.2165,
1935.4148,46.992,
1936.4148,72.0983,
1937.4148,59.7125,
1938.4148,40.5807,
1939.4148,67.5123,
1940.4148,82.9382,
1941.4148,67.9356,
1942.4148,58.9897,
1943.4148,57.1908,
1944.4148,53.5113,
1945.4148,46.2035,
1946.4148,45.7728,
1947.4148,60.0652,
1948.4148,65.1954,
1949.4148,58.0614,
1950.4148,60.353,
1951.4148,61.9644,
1952.4148,53.5965,
1953.4148,50.1945,
1954.4148,52.2217,
1955.4148,51.355,
1956.4148,48.6162,
1957.4148,44.562,
1958.4148,39.275,
1959.4148,47.8414,
1960.4148,70.597,
1961.4148,71.5257,
1962.4148,63.7977,
1963.4148,78.3399,
1964.4148,81.6265,
1965.4148,59.1676,
1966.4148,36.509,
1967.4148,50.3556,
1968.4148,99.4723,
1969.4148,107.897,
1970.4148,74.0978,
1971.4148,46.2289,
1972.4148,47.9536,
1973.4148,67.997,
1974.4148,69.6128,
1975.4148,64.5982,
1976.4148,66.1077,
1977.4148,55.8941,
1978.4148,45.5558,
1979.4148,55.6714,
1980.4148,64.6934,
1981.4148,59.018,
1982.4148,45.3817,
1983.4148,43.5487,
1984.4148,61.0314,
1985.4148,76.4045,
1986.4148,77.191,
1987.4148,65.172,
1988.4148,61.9136,
1989.4148,64.7952,
1990.4148,51.3269,
1991.4148,43.7693,
1992.4148,59.1299,
1993.4148,79.9288,
1994.4148,83.4249,
1995.4148,62.4721,
1996.4148,54.2445,
1997.4148,63.0862,
1998.4148,61.9695,
1999.4148,51.5901,
2000.4148,43.0337,
2001.4148,47.5457,
2002.4148,56.4177,
2003.4148,57.5976,
2004.4148,55.0354,
2005.4148,48.4188,
2006.4148,38.2696,
2007.4148,49.8608,
2008.4148,75.5646,
2009.4148,67.5317,
2010.4148,52.587,
2011.4148,62.4675,
2012.4148,70.6601,
2013.4148,68.424,
2014.4148,63.9589,
2015.4148,63.0601,
2016.4148,66.3007,
2017.4148,69.3613,
2018.4148,69.1139,
2019.4148,62.505,
2020.4148,47.6776,
2021.4148,42.9223,
2022.4148,60.3636,
2023.4148,63.8288,
2024.4148,52.1316,
2025.4148,55.7576,
2026.4148,67.1204,
2027.4148,72.4742,
2028.4148,66.6632,
2029.4148,52.1935,
2030.4148,41.439,
2031.4148,57.7979,
2032.4148,74.6195,
2033.4148,53.1097,
2034.4148,47.3696,
2035.4148,69.7941,
2036.4148,71.5741,
2037.4148,66.1974,
2038.4148,68.4407,
2039.4148,56.1623,
2040.4148,42.6501,
2041.4148,50.1769,
2042.4148,63.1238,
2043.4148,68.7366,
2044.4148,65.1978,
2045.4148,61.8675,
2046.4148,60.6538,
2047.4148,51.869,
2048.4148,43.666,
2049.4148,49.1765,
2050.4148,72.2784,
2051.4148,85.6116,
2052.4148,61.5996,
2053.4148,36.5494,
2054.4148,35.6597,
2055.4148,55.4966,
2056.4148,70.9244,
2057.4148,68.0233,
2058.4148,59.091,
2059.4148,51.2967,
2060.4148,46.4959,

##### Extended Information,,
[Comments],,
Sample name,PEGDA 1500 MgTFSI 30 03_05_18,
Comment,,
User,,
Division,,
Company,JASCO,
,,
[Detailed Information],,
Creation date,3/5/18 10:27,
,,
Data array type,Linear data array,
Horizontal axis,Raman Shift [cm-1],
Vertical axis,Int.,
Start,212.415 cm-1,
End,2060.41 cm-1,
Data interval,1 cm-1,
Data points,1849,
,,
[Measurement Information],,
Model Name,NRS-5100,
Serial Number,B002561420,
,,
Exposure,45 sec,
Accumulation,20,
Center wavenumber,1200.57 cm-1,
Z position,14191.9 um,
Binning Upper,111,
Binning Lower,165,
Valid Channel,1 - 1024,
CCD,DU420_OE,
,,
Laser wavelength,532.10 nm,
Monochromator,Single,
Grating,1200 l/mm,
Slit,200 x 1000 um,
Aperture,d-40 um,
Notch filter,532.0 nm,
Resolution,13.84 cm-1, 1.81 cm-1/pixel
Objective lens,UMPLFL 20 x,
BS/DM,BS 30/70,
1/2 plate,Not fitted,
Polarization,Not fitted,
Laser power,3.4 mW,
Attenuator,Open,
Cosmic ray reduction,On,
Delete Fluorence,R=100,
CCD temperature,-69.0 C,